# Silicon 
# from  Dai J. et al "Terahertz time-domain spectroscopy characterization of the far-infrared absorption and index of refraction of high-resistivity, float-zone silicon", JOSA B, Vol. 21, Issue 7, pp. 1379-1386 (2004)
#lambda[A]			k
13051.1065420764	1.69743801769125E-006
1964.0905766541	2.81798285126016E-007
955.8305270356	1.31563260076247E-007
653.7773408241	8.65560538360228E-008
496.0811367673	0.000000072
360.5650400208	6.24570966344502E-008
272.401911635	6.42643921014113E-008
226.7362234131	7.22030058965548E-008
200.2248763347	8.78751875998811E-008
179.0458875572	7.7431421551017E-008
163.1102493725	7.84356750263716E-008
149.6510100195	8.46192540486596E-008
139.2222122526	9.30945627223138E-008
128.2634580943	1.0349606430606E-007
120.9168239677	1.10085814810926E-007
112.0806131868	1.25606644507746E-007
104.710261313	1.41286437308418E-007
97.7987534142	1.66669164187668E-007
92.8873486762	1.91399998945216E-007
88.6646603174	2.28774386662878E-007
85.6518891071	0.000000261
83.5408231633	2.96630033502603E-007
81.5622696609	3.14459948464595E-007
80.2130101382	3.04719999278209E-007
77.747871837	2.78124089459725E-007
75.0991341758	2.6691876497393E-007
73.0733575782	2.68689959989696E-007
71.4415715966	2.7021080231445E-007
68.9665110996	2.80458434861454E-007
67.6386903032	2.93225036706304E-007
65.7424569828	3.16848524549843E-007
62.9820002256	3.76092359474982E-007
